File: Versuche Semester VII/1. V44 Röntgenreflektometrie/python/data/just_rock_03.UXD
; C:\DIFFDAT1\Praktikum\Schlueckg_Sander\just_rock_03.raw(Diffrac Plus V1.01 file) converted by XCH V1.0
_FILEVERSION=2
_SAMPLE='0916-XW-120-M5-ag.raw'
_SITE='Deutschland'
_USER='Administrator'
_GONIOMETER_CODE=4885
; D8 Theta/Theta; Special
_SAMPLE_CHANGER_CODE=0
_ATTACHMENTS_CODE=0
_GONIOMETER_RADIUS=350
_FIXED_DIVSLIT=0.600000
_FIXED_SAMPLESLIT=0.000000
_FIXED_DETSLIT=11.66
_MONOCHROMATOR=0
; None
_THIN_FILM='N'
_BETA_FILTER='Y'
_FIXED_ANTISLIT=8.340000
_ANALYZER_CODE=0
; None
_DATEMEASURED='17-Oct-2022 10:40:15'
_WL_UNIT='A'
_WL1=1.540600
_WL2=1.544390
_WL3=1.392220
_WLRATIO=0.500000
_ANODE='Cu'
; (Data for Range number 1)
_DRIVE='THETA'
_STEPTIME=0.999980
_STEPSIZE=0.005000
_STEPMODE='C'
_START=0.000000
_THETA=0.000000
_2THETA=0.300000
_KHI=0.000000
_PHI=92.46
_X=2.008000
_Y=-0.600000
_Z=0.101000
_DIVERGENCE=0.000000
_ANTISCATTER=0.000000
_DETECTOR=5
_DETECTORSLIT='unkn'
_AUX1=0.000000
_AUX2=0.000000
_AUX3=0.000000
_TIMESTARTED=2.000000
_TEMP_RATE=-1.000000
_TEMP_DELAY=-1.000000
_KV=40
_MA=35
_RANGE_WL=1.540600
_3DPLANE=0
_GONIOMETER=0.299500
_PSDCHANNEL0=0
_2THETACOUNTS
   0.0000      2631
   0.0050      2703
   0.0100      2632
   0.0150      2764
   0.0200      2680
   0.0250      2763
   0.0300      2775
   0.0350      2639
   0.0400      2770
   0.0450      2719
   0.0500      2804
   0.0550      2708
   0.0600      2791
   0.0650      2786
   0.0700      2879
   0.0750      2764
   0.0800      2940
   0.0850      2944
   0.0900      2983
   0.0950      3076
   0.1000      3215
   0.1050      3388
   0.1100      3682
   0.1150      4065
   0.1200      4704
   0.1250      5879
   0.1300      7901
   0.1350     10346
   0.1400     13715
   0.1450     17266
   0.1500     20634
   0.1550     24192
   0.1600     28157
   0.1650     34097
   0.1700     48246
   0.1750     90809
   0.1800    164535
   0.1850    238612
   0.1900    275821
   0.1950    290475
   0.2000    294196
   0.2050    296163
   0.2100    289195
   0.2150    268268
   0.2200    216713
   0.2250    141262
   0.2300     86104
   0.2350     52228
   0.2400     38171
   0.2450     29645
   0.2500     22367
   0.2550     16709
   0.2600     12522
   0.2650      9702
   0.2700      7611
   0.2750      6010
   0.2800      5094
   0.2850      4501
   0.2900      3997
   0.2950      3700
   0.3000      3649