File: Versuche Semester VII/1. V44 Röntgenreflektometrie/python/data/reflektivitat.UXD
; C:\DIFFDAT1\Praktikum\Schlueckg_Sander\reflektivitat.raw(Diffrac Plus V1.01 file) converted by XCH V1.0
_FILEVERSION=2
_SAMPLE='0916-XW-120-M5-ag.raw'
_SITE='Deutschland'
_USER='Administrator'
_GONIOMETER_CODE=4885
; D8 Theta/Theta; Special
_SAMPLE_CHANGER_CODE=0
_ATTACHMENTS_CODE=0
_GONIOMETER_RADIUS=350
_FIXED_DIVSLIT=0.600000
_FIXED_SAMPLESLIT=0.000000
_FIXED_DETSLIT=11.66
_MONOCHROMATOR=0
; None
_THIN_FILM='N'
_BETA_FILTER='Y'
_FIXED_ANTISLIT=8.340000
_ANALYZER_CODE=0
; None
_DATEMEASURED='17-Oct-2022 10:58:07'
_WL_UNIT='A'
_WL1=1.540600
_WL2=1.544390
_WL3=1.392220
_WLRATIO=0.500000
_ANODE='Cu'
; (Data for Range number 1)
_DRIVE='THETA'
_STEPTIME=5.000660
_STEPSIZE=0.005000
_STEPMODE='C'
_START=0.000000
_THETA=0.000000
_2THETA=0.000000
_KHI=0.000000
_PHI=92.46
_X=2.008000
_Y=-0.600000
_Z=0.100000
_DIVERGENCE=0.000000
_ANTISCATTER=0.000000
_DETECTOR=5
_DETECTORSLIT='unkn'
_AUX1=0.000000
_AUX2=0.000000
_AUX3=0.000000
_TIMESTARTED=2.000000
_TEMP_RATE=-1.000000
_TEMP_DELAY=-1.000000
_KV=40
_MA=35
_RANGE_WL=1.540600
_3DPLANE=0
_GONIOMETER=-0.002600
_PSDCHANNEL0=0
_2THETACOUNTS
   0.0000   2221990
   0.0100   2625700
   0.0200   2768910
   0.0300   2093850
   0.0400   1345510
   0.0500   1026480
   0.0600    940274
   0.0700    924055
   0.0800    968738
   0.0900   1034200
   0.1000   1111220
   0.1100   1194520
   0.1200   1282750
   0.1300   1370430
   0.1400   1450130
   0.1500   1507970
   0.1600   1520640
   0.1700   1553170
   0.1800   1619010
   0.1900   1679640
   0.2000   1706770
   0.2100   1593010
   0.2200   1328450
   0.2300    909630
   0.2400    560609
   0.2500    315147
   0.2600    224334
   0.2700    171340
   0.2800    114622
   0.2900     77731
   0.3000     68412
   0.3100     65930
   0.3200     52850
   0.3300     37129
   0.3400     30084
   0.3500     30988
   0.3600     29792
   0.3700     23494
   0.3800     17015
   0.3900     15265
   0.4000     16180
   0.4100     15781
   0.4200     12415
   0.4300      9278
   0.4400      8506
   0.4500      9241
   0.4600      9083
   0.4700      7175
   0.4800      5573
   0.4900      5299
   0.5000      5652
   0.5100      5512
   0.5200      4632
   0.5300      3520
   0.5400      3271
   0.5500      3567
   0.5600      3449
   0.5700      3010
   0.5800      2355
   0.5900      2206
   0.6000      2225
   0.6100      2273
   0.6200      2031
   0.6300      1709
   0.6400      1469
   0.6500      1514
   0.6600      1457
   0.6700      1351
   0.6800      1120
   0.6900      1003
   0.7000       994
   0.7100      1050
   0.7200       936
   0.7300       797
   0.7400       745
   0.7500       735
   0.7600       781
   0.7700       689
   0.7800       601
   0.7900       483
   0.8000       517
   0.8100       492
   0.8200       520
   0.8300       437
   0.8400       379
   0.8500       359
   0.8600       403
   0.8700       366
   0.8800       292
   0.8900       268
   0.9000       265
   0.9100       245
   0.9200       275
   0.9300       262
   0.9400       225
   0.9500       192
   0.9600       204
   0.9700       202
   0.9800       191
   0.9900       166
   1.0000       148
   1.0100       127
   1.0200       141
   1.0300       126
   1.0400       125
   1.0500       113
   1.0600       102
   1.0700       118
   1.0800       116
   1.0900        92
   1.1000        93
   1.1100        78
   1.1200        60
   1.1300        79
   1.1400        73
   1.1500        75
   1.1600        46
   1.1700        60
   1.1800        48
   1.1900        54
   1.2000        53
   1.2100        47
   1.2200        44
   1.2300        47
   1.2400        47
   1.2500        31
   1.2600        33
   1.2700        41
   1.2800        33
   1.2900        29
   1.3000        35
   1.3100        22
   1.3200        29
   1.3300        23
   1.3400        29
   1.3500        26
   1.3600        16
   1.3700        21
   1.3800        20
   1.3900        31
   1.4000        21
   1.4100        14
   1.4200        12
   1.4300        28
   1.4400        11
   1.4500         9
   1.4600        20
   1.4700        10
   1.4800        18
   1.4900        11
   1.5000        11
   1.5100        10
   1.5200         6
   1.5300         7
   1.5400         7
   1.5500        10
   1.5600         9
   1.5700         6
   1.5800         7
   1.5900        10
   1.6000        11
   1.6100        16
   1.6200        13
   1.6300         8
   1.6400         2
   1.6500         5
   1.6600         8
   1.6700         4
   1.6800         7
   1.6900         3
   1.7000         4
   1.7100         4
   1.7200         6
   1.7300         5
   1.7400         3
   1.7500         2
   1.7600         5
   1.7700         6
   1.7800         5
   1.7900         2
   1.8000         7
   1.8100         2
   1.8200         3
   1.8300         1
   1.8400         5
   1.8500         3
   1.8600         3
   1.8700         4
   1.8800         2
   1.8900         3
   1.9000         3
   1.9100         1
   1.9200         0
   1.9300         4
   1.9400         3
   1.9500         2
   1.9600         2
   1.9700         5
   1.9800         1
   1.9900         3
   2.0000         0
   2.0100         2
   2.0200         2
   2.0300         1
   2.0400         3
   2.0500         1
   2.0600         1
   2.0700         0
   2.0800         1
   2.0900         2
   2.1000         2
   2.1100         1
   2.1200         2
   2.1300         4
   2.1400         2
   2.1500         3
   2.1600         0
   2.1700         2
   2.1800         0
   2.1900         0
   2.2000         0
   2.2100         0
   2.2200         1
   2.2300         2
   2.2400         0
   2.2500         1
   2.2600         2
   2.2700         4
   2.2800         0
   2.2900         0
   2.3000         0
   2.3100         1
   2.3200         0
   2.3300         1
   2.3400         0
   2.3500         0
   2.3600         1
   2.3700         0
   2.3800         1
   2.3900         1
   2.4000         0
   2.4100         2
   2.4200         0
   2.4300         0
   2.4400         1
   2.4500         1
   2.4600         0
   2.4700         2
   2.4800         0
   2.4900         1
   2.5000         1